#Energy(ev) diff_rate
0.909758 3.526179E-87
0.922080 3.614029E-83
0.934402 2.906088E-79
0.946724 1.833430E-75
0.959046 9.075417E-72
0.971368 3.524720E-68
0.983691 1.074107E-64
0.996013 2.568300E-61
1.008335 4.818688E-58
1.020657 7.094266E-55
1.032979 8.195827E-52
1.045301 7.430125E-49
1.057623 5.286025E-46
1.069945 2.951238E-43
1.082267 1.293104E-40
1.094589 4.446617E-38
1.106911 1.200069E-35
1.119233 2.542002E-33
1.131555 4.226224E-31
1.143877 5.515050E-29
1.156199 5.649117E-27
1.168521 4.542129E-25
1.180843 2.866817E-23
1.193165 1.420416E-21
1.205487 5.524836E-20
1.217809 1.687039E-18
1.230131 4.044317E-17
1.242453 7.611882E-16
1.254775 1.124806E-14
1.267097 1.305008E-13
1.279419 1.188802E-12
1.291741 8.503085E-12
1.304063 4.775566E-11
1.316385 2.106043E-10
1.328707 7.293330E-10
1.341029 1.983620E-09
1.353351 4.238789E-09
1.365673 7.126059E-09
1.377995 9.465872E-09
1.390317 1.007420E-08
1.402639 8.954351E-09
1.414961 7.348188E-09
1.427283 6.397451E-09
1.439605 6.051000E-09
1.451928 5.475672E-09
1.464250 4.219448E-09
1.476572 2.652608E-09
1.488894 1.472243E-09
1.501216 1.212659E-09
1.513538 2.296588E-09
1.525860 5.170719E-09
1.538182 1.000026E-08
1.550504 1.626684E-08
1.562826 2.301164E-08
1.575148 2.946074E-08
1.587470 3.508188E-08
1.599792 3.949891E-08
1.612114 4.345746E-08
1.624436 4.971616E-08
1.636758 6.135884E-08
1.649080 7.839146E-08
1.661402 9.691235E-08
1.673724 1.125169E-07
1.686046 1.243803E-07
1.698368 1.361341E-07
1.710690 1.532266E-07
1.723012 1.784671E-07
1.735334 2.083498E-07
1.747656 2.340910E-07
1.759978 2.488349E-07
1.772300 2.552221E-07
1.784622 2.647718E-07
1.796944 2.880271E-07
1.809266 3.243826E-07
1.821588 3.620813E-07
1.833910 3.890419E-07
1.846232 4.031305E-07
1.858554 4.116139E-07
1.870876 4.234211E-07
1.883198 4.443464E-07
1.895520 4.763815E-07
1.907843 5.163480E-07
1.920165 5.558128E-07
1.932487 5.862815E-07
1.944809 6.046303E-07
1.957131 6.130460E-07
1.969453 6.166903E-07
1.981775 6.218737E-07
1.994097 6.325596E-07
2.006419 6.481986E-07
2.018741 6.670069E-07
2.031063 6.879025E-07
2.043385 7.054651E-07
2.055707 7.073340E-07
2.068029 6.831946E-07
2.080351 6.376211E-07
2.092673 5.915268E-07
2.104995 5.678606E-07
2.117317 5.738437E-07
2.129639 5.964849E-07
2.141961 6.143978E-07
2.154283 6.135144E-07
2.166605 5.936935E-07
2.178927 5.635834E-07
2.191249 5.313171E-07
2.203571 5.007897E-07
2.215893 4.744212E-07
2.228215 4.548057E-07
2.240537 4.420278E-07
2.252859 4.314706E-07
2.265181 4.164009E-07
2.277503 3.942132E-07
2.289825 3.703254E-07
2.302147 3.545830E-07
2.314469 3.534879E-07
2.326791 3.649445E-07
2.339113 3.772825E-07
2.351435 3.739098E-07
2.363757 3.442539E-07
2.376080 2.921205E-07
2.388402 2.317991E-07
2.400724 1.774521E-07
2.413046 1.378266E-07
2.425368 1.165206E-07
2.437690 1.110978E-07
2.450012 1.124671E-07
2.462334 1.100814E-07
2.474656 9.994550E-08
2.486978 8.684381E-08
2.499300 7.855552E-08
2.511622 7.834097E-08
2.523944 8.267067E-08
2.536266 8.507382E-08
2.548588 8.145263E-08
2.560910 7.231828E-08
2.573232 6.148392E-08
2.585554 5.358868E-08
2.597876 5.217241E-08
2.610198 5.813270E-08
2.622520 6.841271E-08
2.634842 7.650485E-08
2.647164 7.608085E-08
2.659486 6.539720E-08
2.671808 4.816543E-08
2.684130 3.029868E-08
2.696452 1.618079E-08
2.708774 7.251625E-09
2.721096 2.686567E-09
2.733418 8.106358E-10
2.745740 1.967895E-10
2.758062 3.812294E-11
2.770384 6.207119E-12
2.782706 3.949583E-12
2.795028 2.273050E-11
2.807350 1.242641E-10
2.819672 5.343604E-10
2.831995 1.802338E-09
2.844317 4.767983E-09
2.856639 9.893025E-09
2.868961 1.609977E-08
2.881283 2.054974E-08
2.893605 2.057259E-08
2.905927 1.615354E-08
2.918249 9.948157E-09
2.930571 4.805224E-09
2.942893 1.820458E-09
2.955215 5.409334E-10
2.967537 1.260675E-10
2.979859 2.304402E-11
2.992181 3.303769E-12
3.004503 3.714985E-13
3.016825 3.276428E-14
3.029147 2.266419E-15
3.041469 1.229634E-16
3.053791 5.232482E-18
3.066113 1.746368E-19
3.078435 4.571509E-21
3.090757 9.385981E-23
3.103079 1.511457E-24
3.115401 1.909009E-26
3.127723 1.891108E-28
3.140045 1.469335E-30
3.152367 8.954084E-33
3.164689 4.279743E-35
3.177011 1.604392E-37
3.189333 4.717361E-40
3.201655 1.087887E-42
3.213977 1.967727E-45
3.226299 2.791526E-48
3.238621 3.106095E-51
3.250943 2.710716E-54
3.263265 1.855450E-57
3.275587 9.961173E-61
3.287909 4.194381E-64
3.300232 1.385228E-67
3.312554 3.588153E-71
3.324876 7.289816E-75
3.337198 1.161604E-78
3.349520 1.451764E-82
3.361842 1.423082E-86
