#Energy(ev) diff_rate
1.316358 5.654092E-88
1.323278 1.038981E-85
1.330198 1.768387E-83
1.337118 2.787869E-81
1.344038 4.070920E-79
1.350958 5.506023E-77
1.357878 6.897770E-75
1.364798 8.003956E-73
1.371718 8.602528E-71
1.378639 8.563928E-69
1.385559 7.896696E-67
1.392479 6.744403E-65
1.399399 5.335405E-63
1.406319 3.909463E-61
1.413239 2.653341E-59
1.420159 1.667997E-57
1.427079 9.712341E-56
1.433999 5.238168E-54
1.440919 2.616749E-52
1.447839 1.210799E-50
1.454759 5.189317E-49
1.461679 2.060045E-47
1.468599 7.574821E-46
1.475519 2.579870E-44
1.482439 8.138678E-43
1.489359 2.378163E-41
1.496279 6.436684E-40
1.503199 1.613678E-38
1.510119 3.747206E-37
1.517039 8.060016E-36
1.523959 1.605847E-34
1.530879 2.963569E-33
1.537799 5.066075E-32
1.544719 8.021903E-31
1.551639 1.176622E-29
1.558559 1.598655E-28
1.565479 2.012042E-27
1.572399 2.345799E-26
1.579319 2.533516E-25
1.586239 2.534811E-24
1.593159 2.349456E-23
1.600079 2.017447E-22
1.606999 1.604964E-21
1.613919 1.182973E-20
1.620839 8.078886E-20
1.627759 5.112345E-19
1.634679 2.997848E-18
1.641599 1.629123E-17
1.648519 8.205264E-17
1.655439 3.830649E-16
1.662359 1.657861E-15
1.669279 6.652486E-15
1.676199 2.475460E-14
1.683119 8.543846E-14
1.690039 2.735789E-13
1.696959 8.129607E-13
1.703879 2.242672E-12
1.710799 5.745838E-12
1.717719 1.367901E-11
1.724639 3.027907E-11
1.731559 6.236738E-11
1.738479 1.196546E-10
1.745399 2.140959E-10
1.752319 3.578568E-10
1.759239 5.599791E-10
1.766159 8.227091E-10
1.773079 1.139222E-09
1.779999 1.494550E-09
1.786919 1.870558E-09
1.793839 2.254108E-09
1.800760 2.646139E-09
1.807680 3.069020E-09
1.814600 3.570315E-09
1.821520 4.222226E-09
1.828440 5.116402E-09
1.835360 6.353801E-09
1.842280 8.029918E-09
1.849200 1.021796E-08
1.856120 1.295571E-08
1.863040 1.624321E-08
1.869960 2.005483E-08
1.876880 2.436172E-08
1.883800 2.915249E-08
1.890720 3.443763E-08
1.897640 4.023131E-08
1.904560 4.651823E-08
1.911480 5.322634E-08
1.918400 6.022679E-08
1.925320 6.736799E-08
1.932240 7.452828E-08
1.939160 8.165520E-08
1.946080 8.876237E-08
1.953000 9.587776E-08
1.959920 1.029660E-07
1.966840 1.098643E-07
1.973760 1.162659E-07
1.980680 1.217584E-07
1.987600 1.259008E-07
1.994520 1.283097E-07
2.001440 1.287301E-07
2.008360 1.270807E-07
2.015280 1.234721E-07
2.022200 1.181941E-07
2.029120 1.116710E-07
2.036040 1.043850E-07
2.042960 9.678422E-08
2.049880 8.920256E-08
2.056800 8.182237E-08
2.063720 7.469221E-08
2.070640 6.778734E-08
2.077560 6.108085E-08
2.084480 5.459246E-08
2.091400 4.839825E-08
2.098320 4.260622E-08
2.105240 3.731671E-08
2.112160 3.258811E-08
2.119080 2.842025E-08
2.126000 2.475824E-08
2.132920 2.151262E-08
2.139840 1.858751E-08
2.146760 1.590775E-08
2.153680 1.343646E-08
2.160600 1.117821E-08
2.167520 9.167465E-09
2.174440 7.447179E-09
2.181360 6.045373E-09
2.188280 4.957920E-09
2.195200 4.143367E-09
2.202120 3.531391E-09
2.209040 3.041454E-09
2.215961 2.604239E-09
2.222881 2.177479E-09
2.229801 1.750547E-09
2.236721 1.337550E-09
2.243641 9.636091E-10
2.250561 6.511297E-10
2.257481 4.112784E-10
2.264401 2.423001E-10
2.271321 1.329529E-10
2.278241 6.788162E-11
2.285161 3.222780E-11
2.292081 1.422097E-11
2.299001 5.830376E-12
2.305921 2.220322E-12
2.312841 7.852236E-13
2.319761 2.578400E-13
2.326681 7.859942E-14
2.333601 2.224030E-14
2.340521 5.840642E-15
2.347441 1.423409E-15
2.354361 3.218859E-16
2.361281 6.753593E-17
2.368201 1.314583E-17
2.375121 2.373685E-18
2.382041 3.975611E-19
2.388961 6.175838E-20
2.395881 8.897465E-21
2.402801 1.188731E-21
2.409721 1.472713E-22
2.416641 1.691769E-23
2.423561 1.801877E-24
2.430481 1.779281E-25
2.437401 1.628825E-26
2.444321 1.382265E-27
2.451241 1.087358E-28
2.458161 7.928613E-30
2.465081 5.358522E-31
2.472001 3.356579E-32
2.478921 1.948654E-33
2.485841 1.048435E-34
2.492761 5.227582E-36
2.499681 2.415449E-37
2.506601 1.034232E-38
2.513521 4.103440E-40
2.520441 1.508604E-41
2.527361 5.139106E-43
2.534281 1.622087E-44
2.541201 4.743778E-46
2.548121 1.285371E-47
2.555041 3.226840E-49
2.561961 7.505208E-51
2.568881 1.617247E-52
2.575801 3.228574E-54
2.582721 5.971166E-56
2.589641 1.023093E-57
2.596561 1.623950E-59
2.603481 2.387954E-61
2.610401 3.252895E-63
2.617321 4.104875E-65
2.624241 4.798565E-67
2.631161 5.196369E-69
2.638082 5.212691E-71
2.645002 4.843883E-73
2.651922 4.169575E-75
2.658842 3.324706E-77
2.665762 2.455700E-79
2.672682 1.680177E-81
2.679602 1.064854E-83
2.686522 6.251415E-86
2.693442 3.399519E-88
