#Energy (ev) diff_rate
1.363658 3.518945E-87
1.369857 3.769312E-85
1.376056 3.796735E-83
1.382255 3.596309E-81
1.388454 3.203334E-79
1.394653 2.683157E-77
1.400852 2.113432E-75
1.407051 1.565414E-73
1.413250 1.090357E-71
1.419449 7.141780E-70
1.425647 4.398888E-68
1.431846 2.547874E-66
1.438045 1.387751E-64
1.444244 7.107937E-63
1.450443 3.423531E-61
1.456642 1.550613E-59
1.462841 6.604366E-58
1.469040 2.645193E-56
1.475239 9.962820E-55
1.481438 3.528627E-53
1.487637 1.175243E-51
1.493835 3.680852E-50
1.500034 1.084095E-48
1.506233 3.002516E-47
1.512432 7.819911E-46
1.518631 1.915213E-44
1.524830 4.410937E-43
1.531029 9.553082E-42
1.537228 1.945606E-40
1.543427 3.726193E-39
1.549626 6.710805E-38
1.555825 1.136536E-36
1.562024 1.810051E-35
1.568222 2.710802E-34
1.574421 3.817725E-33
1.580620 5.056050E-32
1.586819 6.296778E-31
1.593018 7.374391E-30
1.599217 8.121482E-29
1.605416 8.410977E-28
1.611615 8.191446E-27
1.617814 7.502030E-26
1.624013 6.461042E-25
1.630212 5.232794E-24
1.636410 3.985421E-23
1.642609 2.854482E-22
1.648808 1.922633E-21
1.655007 1.217828E-20
1.661206 7.254400E-20
1.667405 4.063969E-19
1.673604 2.141123E-18
1.679803 1.060929E-17
1.686002 4.944229E-17
1.692201 2.167188E-16
1.698400 8.935169E-16
1.704598 3.465339E-15
1.710797 1.264332E-14
1.716996 4.340049E-14
1.723195 1.401855E-13
1.729394 4.261463E-13
1.735593 1.219418E-12
1.741792 3.285485E-12
1.747991 8.337659E-12
1.754190 1.993740E-11
1.760389 4.494710E-11
1.766588 9.559387E-11
1.772786 1.919602E-10
1.778985 3.643249E-10
1.785184 6.543472E-10
1.791383 1.113867E-09
1.797582 1.800368E-09
1.803781 2.769049E-09
1.809980 4.062782E-09
1.816179 5.702352E-09
1.822378 7.679723E-09
1.828577 9.956367E-09
1.834776 1.246756E-08
1.840975 1.513282E-08
1.847173 1.787309E-08
1.853372 2.063564E-08
1.859571 2.342710E-08
1.865770 2.635037E-08
1.871969 2.963401E-08
1.878168 3.363515E-08
1.884367 3.879522E-08
1.890566 4.553752E-08
1.896765 5.411807E-08
1.902964 6.447043E-08
1.909163 7.610763E-08
1.915361 8.814365E-08
1.921560 9.946379E-08
1.927759 1.090140E-07
1.933958 1.161185E-07
1.940157 1.207031E-07
1.946356 1.233263E-07
1.952555 1.249881E-07
1.958754 1.267815E-07
1.964953 1.295157E-07
1.971152 1.334550E-07
1.977351 1.382642E-07
1.983549 1.431694E-07
1.989748 1.472574E-07
1.995947 1.497881E-07
2.002146 1.504029E-07
2.008345 1.491629E-07
2.014544 1.464253E-07
2.020743 1.426342E-07
2.026942 1.381298E-07
2.033141 1.330591E-07
2.039340 1.274143E-07
2.045539 1.211596E-07
2.051737 1.143635E-07
2.057936 1.072619E-07
2.064135 1.002156E-07
2.070334 9.358554E-08
2.076533 8.758782E-08
2.082732 8.219903E-08
2.088931 7.715455E-08
2.095130 7.203976E-08
2.101329 6.643567E-08
2.107528 6.006257E-08
2.113727 5.287191E-08
2.119925 4.506115E-08
2.126124 3.701577E-08
2.132323 2.920580E-08
2.138522 2.207377E-08
2.144721 1.594701E-08
2.150920 1.099302E-08
2.157119 7.220146E-09
2.163318 4.512376E-09
2.169517 2.680370E-09
2.175716 1.511687E-09
2.181915 8.087122E-10
2.188114 4.100282E-10
2.194312 1.968684E-10
2.200511 8.944684E-11
2.206710 3.843207E-11
2.212909 1.560635E-11
2.219108 5.986201E-12
2.225307 2.167857E-12
2.231506 7.408793E-13
2.237705 2.388523E-13
2.243904 7.261430E-14
2.250103 2.081076E-14
2.256302 5.620871E-15
2.262500 1.430408E-15
2.268699 3.428934E-16
2.274898 7.741318E-17
2.281097 1.645700E-17
2.287296 3.293810E-18
2.293495 6.205808E-19
2.299694 1.100517E-19
2.305893 1.836738E-20
2.312092 2.884747E-21
2.318291 4.263261E-22
2.324490 5.928125E-23
2.330688 7.755425E-24
2.336887 9.545120E-25
2.343086 1.105154E-25
2.349285 1.203676E-26
2.355484 1.233176E-27
2.361683 1.188377E-28
2.367882 1.077167E-29
2.374081 9.183321E-31
2.380280 7.363669E-32
2.386479 5.553377E-33
2.392678 3.938949E-34
2.398876 2.627584E-35
2.405075 1.648465E-36
2.411274 9.726217E-38
2.417473 5.396901E-39
2.423672 2.816287E-40
2.429871 1.382093E-41
2.436070 6.378558E-43
2.442269 2.768403E-44
2.448468 1.129939E-45
2.454667 4.337082E-47
2.460866 1.565506E-48
2.467065 5.314036E-50
2.473263 1.696311E-51
2.479462 5.092089E-53
2.485661 1.437458E-54
2.491860 3.815939E-56
2.498059 9.526076E-58
2.504258 2.236310E-59
2.510457 4.936905E-61
2.516656 1.024900E-62
2.522855 2.000836E-64
2.529054 3.673197E-66
2.535253 6.341315E-68
2.541451 1.029476E-69
2.547650 1.571646E-71
2.553849 2.256288E-73
2.560048 3.046036E-75
2.566247 3.867018E-77
2.572446 4.616552E-79
2.578645 5.182740E-81
2.584844 5.471433E-83
2.591043 5.431786E-85
2.597242 5.070886E-87
