#Energy (ev) diff_rate
1.264658 6.431653E-88
1.272886 3.138035E-85
1.281113 1.373901E-82
1.289341 5.397780E-80
1.297569 1.902994E-77
1.305796 6.020351E-75
1.314024 1.709105E-72
1.322251 4.353894E-70
1.330479 9.952893E-68
1.338706 2.041659E-65
1.346934 3.758195E-63
1.355161 6.207801E-61
1.363389 9.201500E-59
1.371617 1.223888E-56
1.379844 1.460788E-54
1.388072 1.564570E-52
1.396299 1.503714E-50
1.404527 1.296874E-48
1.412754 1.003673E-46
1.420982 6.970269E-45
1.429209 4.343792E-43
1.437437 2.429130E-41
1.445665 1.218975E-39
1.453892 5.489102E-38
1.462120 2.218044E-36
1.470347 8.042688E-35
1.478575 2.616945E-33
1.486802 7.641004E-32
1.495030 2.002020E-30
1.503257 4.707051E-29
1.511485 9.930970E-28
1.519713 1.880169E-26
1.527940 3.194216E-25
1.536168 4.869609E-24
1.544395 6.661718E-23
1.552623 8.177883E-22
1.560850 9.008615E-21
1.569078 8.905079E-20
1.577305 7.899151E-19
1.585533 6.287619E-18
1.593761 4.491132E-17
1.601988 2.878661E-16
1.610216 1.655739E-15
1.618443 8.546015E-15
1.626671 3.958324E-14
1.634898 1.645300E-13
1.643126 6.137376E-13
1.651353 2.054733E-12
1.659581 6.174732E-12
1.667809 1.665976E-11
1.676036 4.037217E-11
1.684264 8.793729E-11
1.692491 1.723896E-10
1.700719 3.048811E-10
1.708946 4.885475E-10
1.717174 7.148158E-10
1.725401 9.677827E-10
1.733629 1.238463E-09
1.741856 1.542192E-09
1.750084 1.925608E-09
1.758312 2.452279E-09
1.766539 3.169390E-09
1.774767 4.073426E-09
1.782994 5.098259E-09
1.791222 6.138448E-09
1.799449 7.098731E-09
1.807677 7.941432E-09
1.815904 8.701600E-09
1.824132 9.460889E-09
1.832360 1.030278E-08
1.840587 1.128732E-08
1.848815 1.246435E-08
1.857042 1.390278E-08
1.865270 1.569001E-08
1.873497 1.788201E-08
1.881725 2.044425E-08
1.889952 2.325648E-08
1.898180 2.621383E-08
1.906408 2.936412E-08
1.914635 3.296665E-08
1.922863 3.740234E-08
1.931090 4.297916E-08
1.939318 4.975327E-08
1.947545 5.746286E-08
1.955773 6.558643E-08
1.964000 7.347848E-08
1.972228 8.053831E-08
1.980456 8.638411E-08
1.988683 9.098674E-08
1.996911 9.468715E-08
2.005138 9.804594E-08
2.013366 1.015673E-07
2.021593 1.054303E-07
2.029821 1.093648E-07
2.038048 1.127231E-07
2.046276 1.147023E-07
2.054504 1.146271E-07
2.062731 1.122000E-07
2.070959 1.076391E-07
2.079186 1.016466E-07
2.087414 9.520671E-08
2.095641 8.928574E-08
2.103869 8.455118E-08
2.112096 8.120633E-08
2.120324 7.897809E-08
2.128552 7.724670E-08
2.136779 7.528046E-08
2.145007 7.251050E-08
2.153234 6.874396E-08
2.161462 6.421426E-08
2.169689 5.943907E-08
2.177917 5.496695E-08
2.186144 5.115493E-08
2.194372 4.808568E-08
2.202600 4.563536E-08
2.210827 4.361541E-08
2.219055 4.188499E-08
2.227282 4.036978E-08
2.235510 3.899597E-08
2.243737 3.760988E-08
2.251965 3.596358E-08
2.260192 3.379742E-08
2.268420 3.097350E-08
2.276648 2.756922E-08
2.284875 2.386386E-08
2.293103 2.022536E-08
2.301330 1.696780E-08
2.309558 1.425728E-08
2.317785 1.210017E-08
2.326013 1.039602E-08
2.334240 9.010795E-09
2.342468 7.830777E-09
2.350696 6.780744E-09
2.358923 5.815884E-09
2.367151 4.910377E-09
2.375378 4.057714E-09
2.383606 3.277485E-09
2.391833 2.611271E-09
2.400061 2.099436E-09
2.408288 1.751170E-09
2.416516 1.530542E-09
2.424744 1.370746E-09
2.432971 1.207173E-09
2.441199 1.006624E-09
2.449426 7.750563E-10
2.457654 5.432809E-10
2.465881 3.441620E-10
2.474109 1.963212E-10
2.482336 1.006616E-10
2.490564 4.635293E-11
2.498791 1.916129E-11
2.507019 7.109163E-12
2.515247 2.367092E-12
2.523474 7.072840E-13
2.531702 1.896464E-13
2.539929 4.563126E-14
2.548157 9.852464E-15
2.556384 1.908933E-15
2.564612 3.318941E-16
2.572839 5.178106E-17
2.581067 7.249444E-18
2.589295 9.107537E-19
2.597522 1.026738E-19
2.605750 1.038677E-20
2.613977 9.428959E-22
2.622205 7.680851E-23
2.630432 5.614580E-24
2.638660 3.682880E-25
2.646887 2.167805E-26
2.655115 1.145025E-27
2.663343 5.427156E-29
2.671570 2.308298E-30
2.679798 8.809957E-32
2.688025 3.017297E-33
2.696253 9.273093E-35
2.704480 2.557370E-36
2.712708 6.328849E-38
2.720935 1.405459E-39
2.729163 2.800749E-41
2.737391 5.008324E-43
2.745618 8.036611E-45
2.753846 1.157220E-46
2.762073 1.495275E-48
2.770301 1.733758E-50
2.778528 1.803925E-52
2.786756 1.684266E-54
2.794983 1.411124E-56
2.803211 1.060918E-58
2.811439 7.157497E-61
2.819666 4.333140E-63
2.827894 2.354001E-65
2.836121 1.147553E-67
2.844349 5.019971E-70
2.852576 1.970571E-72
2.860804 6.941371E-75
2.869031 2.194122E-77
2.877259 6.223555E-80
2.885487 1.584086E-82
2.893714 3.618105E-85
2.901942 7.415595E-88
