#Energy(ev) diff_rate
1.326258 5.550033E-88
1.333185 1.024852E-85
1.340111 1.752624E-83
1.347038 2.775739E-81
1.353965 4.071276E-79
1.360891 5.530247E-77
1.367818 6.956978E-75
1.374744 8.105109E-73
1.381671 8.744988E-71
1.388597 8.738193E-69
1.395524 8.086232E-67
1.402450 6.929993E-65
1.409377 5.500239E-63
1.416303 4.042895E-61
1.423230 2.752108E-59
1.430157 1.735004E-57
1.437083 1.012973E-55
1.444010 5.477179E-54
1.450936 2.742700E-52
1.457863 1.271926E-50
1.464789 5.462702E-49
1.471716 2.172777E-47
1.478642 8.003594E-46
1.485569 2.730342E-44
1.492496 8.626031E-43
1.499422 2.523871E-41
1.506349 6.838887E-40
1.513275 1.716192E-38
1.520202 3.988488E-37
1.527128 8.584458E-36
1.534055 1.711116E-34
1.540981 3.158700E-33
1.547908 5.400069E-32
1.554834 8.549729E-31
1.561761 1.253625E-29
1.568688 1.702334E-28
1.575614 2.140840E-27
1.582541 2.493366E-26
1.589467 2.689366E-25
1.596394 2.686433E-24
1.603320 2.485218E-23
1.610247 2.129195E-22
1.617173 1.689387E-21
1.624100 1.241384E-20
1.631027 8.447850E-20
1.637953 5.324155E-19
1.644880 3.107567E-18
1.651806 1.679799E-17
1.658733 8.409375E-17
1.665659 3.898914E-16
1.672586 1.674184E-15
1.679512 6.658123E-15
1.686439 2.452469E-14
1.693365 8.367203E-14
1.700292 2.644333E-13
1.707219 7.742177E-13
1.714145 2.100403E-12
1.721072 5.281541E-12
1.727998 1.231500E-11
1.734925 2.664601E-11
1.741851 5.355974E-11
1.748778 1.001877E-10
1.755704 1.748860E-10
1.762631 2.860995E-10
1.769558 4.415026E-10
1.776484 6.488773E-10
1.783411 9.202593E-10
1.790337 1.279841E-09
1.797264 1.774059E-09
1.804190 2.480160E-09
1.811117 3.508579E-09
1.818043 4.995493E-09
1.824970 7.084724E-09
1.831896 9.901831E-09
1.838823 1.352676E-08
1.845750 1.797376E-08
1.852676 2.318722E-08
1.859603 2.905795E-08
1.866529 3.545733E-08
1.873456 4.227797E-08
1.880382 4.946506E-08
1.887309 5.702447E-08
1.894235 6.500160E-08
1.901162 7.343647E-08
1.908088 8.230981E-08
1.915015 9.150047E-08
1.921942 1.007742E-07
1.928868 1.098149E-07
1.935795 1.182948E-07
1.942721 1.259579E-07
1.949648 1.326819E-07
1.956574 1.384838E-07
1.963501 1.434633E-07
1.970427 1.477079E-07
1.977354 1.512103E-07
1.984281 1.538435E-07
1.991207 1.554058E-07
1.998134 1.557111E-07
2.005060 1.546686E-07
2.011987 1.523127E-07
2.018913 1.487705E-07
2.025840 1.441973E-07
2.032766 1.387222E-07
2.039693 1.324337E-07
2.046619 1.254052E-07
2.053546 1.177352E-07
2.060473 1.095724E-07
2.067399 1.011120E-07
2.074326 9.256663E-08
2.081252 8.412988E-08
2.088179 7.595004E-08
2.095105 6.812138E-08
2.102032 6.069262E-08
2.108958 5.368539E-08
2.115885 4.711427E-08
2.122812 4.100070E-08
2.129738 3.537631E-08
2.136665 3.027521E-08
2.143591 2.571984E-08
2.150518 2.170844E-08
2.157444 1.821105E-08
2.164371 1.517699E-08
2.171297 1.255007E-08
2.178224 1.028364E-08
2.185150 8.347333E-09
2.192077 6.722885E-09
2.199004 5.392593E-09
2.205930 4.328136E-09
2.212857 3.486594E-09
2.219783 2.815631E-09
2.226710 2.264426E-09
2.233636 1.794247E-09
2.240563 1.383619E-09
2.247489 1.026551E-09
2.254416 7.258957E-10
2.261342 4.857098E-10
2.268269 3.059235E-10
2.275196 1.806983E-10
2.282122 9.982476E-11
2.289049 5.147858E-11
2.295975 2.474589E-11
2.302902 1.107657E-11
2.309828 4.612925E-12
2.316755 1.786221E-12
2.323681 6.427667E-13
2.330608 2.148536E-13
2.337535 6.668743E-14
2.344461 1.921415E-14
2.351388 5.137555E-15
2.358314 1.274519E-15
2.365241 2.932920E-16
2.372167 6.259469E-17
2.379094 1.238759E-17
2.386020 2.272923E-18
2.392947 3.866117E-19
2.399873 6.095472E-20
2.406800 8.907121E-21
2.413727 1.206217E-21
2.420653 1.513688E-22
2.427580 1.760107E-23
2.434506 1.896296E-24
2.441433 1.892837E-25
2.448359 1.750405E-26
2.455286 1.499558E-27
2.462212 1.190064E-28
2.469139 8.748745E-30
2.476066 5.957663E-31
2.482992 3.757938E-32
2.489919 2.195618E-33
2.496845 1.188197E-34
2.503772 5.955761E-36
2.510698 2.765006E-37
2.517625 1.188937E-38
2.524551 4.735009E-40
2.531478 1.746534E-41
2.538404 5.966553E-43
2.545331 1.887804E-44
2.552258 5.531894E-46
2.559184 1.501315E-47
2.566111 3.773537E-49
2.573037 8.784194E-51
2.579964 1.893782E-52
2.586890 3.781214E-54
2.593817 6.992046E-56
2.600743 1.197424E-57
2.607670 1.899158E-59
2.614597 2.789606E-61
2.621523 3.794831E-63
2.628450 4.780893E-65
2.635376 5.578175E-67
2.642303 6.027554E-69
2.649229 6.031919E-71
2.656156 5.590297E-73
2.663082 4.798207E-75
2.670009 3.814059E-77
2.676935 2.807759E-79
2.683862 1.914239E-81
2.690789 1.208637E-83
2.697715 7.067392E-86
2.704642 3.827240E-88
