#Energy (ev) diff_rate
1.061658 4.133368E-88
1.069845 1.956392E-85
1.078032 8.318294E-83
1.086219 3.177163E-80
1.094406 1.090113E-77
1.102593 3.359931E-75
1.110779 9.302851E-73
1.118966 2.313816E-70
1.127153 5.169738E-68
1.135340 1.037613E-65
1.143527 1.870810E-63
1.151714 3.030060E-61
1.159901 4.408598E-59
1.168087 5.762059E-57
1.176274 6.765238E-55
1.184461 7.135380E-53
1.192648 6.760520E-51
1.200835 5.754039E-49
1.209022 4.399423E-47
1.217209 3.021690E-45
1.225395 1.864388E-43
1.233582 1.033371E-41
1.241769 5.145312E-40
1.249956 2.301464E-38
1.258143 9.247759E-37
1.266330 3.338194E-35
1.274516 1.082513E-33
1.282703 3.153595E-32
1.290890 8.253451E-31
1.299077 1.940570E-29
1.307264 4.099165E-28
1.315451 7.779380E-27
1.323638 1.326450E-25
1.331824 2.032120E-24
1.340011 2.797307E-23
1.348198 3.460092E-22
1.356385 3.846109E-21
1.364572 3.842187E-20
1.372759 3.449873E-19
1.380946 2.784515E-18
1.389132 2.020619E-17
1.397319 1.318523E-16
1.405506 7.738493E-16
1.413693 4.086085E-15
1.421880 1.941691E-14
1.430067 8.306926E-14
1.438253 3.200981E-13
1.446440 1.111567E-12
1.454627 3.480648E-12
1.462814 9.834529E-12
1.471001 2.509272E-11
1.479188 5.786379E-11
1.487375 1.207046E-10
1.495561 2.279915E-10
1.503748 3.903436E-10
1.511935 6.064998E-10
1.520122 8.565379E-10
1.528309 1.102143E-09
1.536496 1.297712E-09
1.544683 1.410025E-09
1.552869 1.437563E-09
1.561056 1.418702E-09
1.569243 1.423973E-09
1.577430 1.537432E-09
1.585617 1.837818E-09
1.593804 2.385948E-09
1.601991 3.214904E-09
1.610177 4.315870E-09
1.618364 5.621972E-09
1.626551 7.006293E-09
1.634738 8.309875E-09
1.642925 9.394394E-09
1.651112 1.019080E-08
1.659298 1.071577E-08
1.667485 1.105508E-08
1.675672 1.133816E-08
1.683859 1.172429E-08
1.692046 1.239241E-08
1.700233 1.350963E-08
1.708420 1.517110E-08
1.716606 1.734135E-08
1.724793 1.984456E-08
1.732980 2.242735E-08
1.741167 2.487080E-08
1.749354 2.709731E-08
1.757541 2.922392E-08
1.765728 3.154337E-08
1.773914 3.444083E-08
1.782101 3.826739E-08
1.790288 4.320354E-08
1.798475 4.916303E-08
1.806662 5.579233E-08
1.814849 6.258709E-08
1.823035 6.908060E-08
1.831222 7.500814E-08
1.839409 8.036405E-08
1.847596 8.534023E-08
1.855783 9.020663E-08
1.863970 9.520519E-08
1.872157 1.004828E-07
1.880343 1.060484E-07
1.888530 1.117471E-07
1.896717 1.172800E-07
1.904904 1.222932E-07
1.913091 1.265080E-07
1.921278 1.298110E-07
1.929465 1.322454E-07
1.937651 1.339186E-07
1.945838 1.349016E-07
1.954025 1.351837E-07
1.962212 1.346882E-07
1.970399 1.333128E-07
1.978586 1.309642E-07
1.986772 1.275844E-07
1.994959 1.231826E-07
2.003146 1.178716E-07
2.011333 1.118925E-07
2.019520 1.056092E-07
2.027707 9.946664E-08
2.035894 9.392287E-08
2.044080 8.936394E-08
2.052267 8.601545E-08
2.060454 8.386550E-08
2.068641 8.262471E-08
2.076828 8.175372E-08
2.085015 8.057224E-08
2.093202 7.842507E-08
2.101388 7.484812E-08
2.109575 6.968081E-08
2.117762 6.310215E-08
2.125949 5.559053E-08
2.134136 4.780917E-08
2.142323 4.043280E-08
2.150509 3.397139E-08
2.158696 2.867177E-08
2.166883 2.453772E-08
2.175070 2.142478E-08
2.183257 1.912196E-08
2.191444 1.737339E-08
2.199631 1.587442E-08
2.207817 1.430860E-08
2.216004 1.244389E-08
2.224191 1.023127E-08
2.232378 7.826084E-09
2.240565 5.505772E-09
2.248752 3.534970E-09
2.256939 2.060818E-09
2.265125 1.087295E-09
2.273312 5.180599E-10
2.281499 2.226031E-10
2.289686 8.617923E-11
2.297873 3.004209E-11
2.306060 9.426200E-12
2.314247 2.661353E-12
2.322433 6.759987E-13
2.330620 1.544578E-13
2.338807 3.174346E-14
2.346994 5.867462E-15
2.355181 9.753851E-16
2.363368 1.458193E-16
2.371554 1.960438E-17
2.379741 2.370165E-18
2.387928 2.576802E-19
2.396115 2.519128E-20
2.404302 2.214505E-21
2.412489 1.750455E-22
2.420676 1.244122E-23
2.428862 7.950664E-25
2.437049 4.568379E-26
2.445236 2.360092E-27
2.453423 1.096210E-28
2.461610 4.577686E-30
2.469797 1.718601E-31
2.477984 5.800564E-33
2.486170 1.760033E-34
2.494357 4.800828E-36
2.502544 1.177187E-37
2.510731 2.594762E-39
2.518918 5.141173E-41
2.527105 9.156487E-43
2.535291 1.465841E-44
2.543478 2.109241E-46
2.551665 2.727952E-48
2.559852 3.171088E-50
2.568039 3.313076E-52
2.576226 3.110976E-54
2.584413 2.625395E-56
2.592599 1.991208E-58
2.600786 1.357231E-60
2.608973 8.313768E-63
2.617160 4.576575E-65
2.625347 2.263987E-67
2.633534 1.006446E-69
2.641721 4.020528E-72
2.649907 1.443259E-74
2.658094 4.655514E-77
2.666281 1.349418E-79
2.674468 3.514588E-82
2.682655 8.225187E-85
2.690842 1.729636E-87
