#Energy (ev) diff_rate
1.387258 3.716449E-88
1.393902 5.558088E-86
1.400546 7.745896E-84
1.407189 1.005930E-81
1.413833 1.217349E-79
1.420477 1.372824E-77
1.427120 1.442672E-75
1.433764 1.412783E-73
1.440407 1.289256E-71
1.447051 1.096377E-69
1.453695 8.688404E-68
1.460338 6.416236E-66
1.466982 4.415529E-64
1.473626 2.831711E-62
1.480269 1.692313E-60
1.486913 9.424963E-59
1.493557 4.891569E-57
1.500200 2.365855E-55
1.506844 1.066355E-53
1.513487 4.479107E-52
1.520131 1.753313E-50
1.526775 6.395998E-49
1.533418 2.174407E-47
1.540062 6.889056E-46
1.546706 2.034080E-44
1.553349 5.597173E-43
1.559993 1.435375E-41
1.566636 3.430529E-40
1.573280 7.641172E-39
1.579924 1.586229E-37
1.586567 3.068900E-36
1.593211 5.533698E-35
1.599855 9.299693E-34
1.606498 1.456624E-32
1.613142 2.126464E-31
1.619786 2.893385E-30
1.626429 3.669433E-29
1.633073 4.337546E-28
1.639716 4.779146E-27
1.646360 4.908256E-26
1.653004 4.698793E-25
1.659647 4.193152E-24
1.666291 3.488233E-23
1.672935 2.705200E-22
1.679578 1.955888E-21
1.686222 1.318457E-20
1.692866 8.287002E-20
1.699509 4.857118E-19
1.706153 2.654967E-18
1.712796 1.353632E-17
1.719440 6.438449E-17
1.726084 2.857585E-16
1.732727 1.183801E-15
1.739371 4.579078E-15
1.746015 1.654616E-14
1.752658 5.588430E-14
1.759302 1.765536E-13
1.765946 5.222282E-13
1.772589 1.447910E-12
1.779233 3.768215E-12
1.785876 9.221153E-12
1.792520 2.126012E-11
1.799164 4.628894E-11
1.805807 9.541549E-11
1.812451 1.866977E-10
1.819095 3.476687E-10
1.825738 6.176267E-10
1.832382 1.048763E-09
1.839026 1.704792E-09
1.845669 2.655678E-09
1.852313 3.967866E-09
1.858956 5.691434E-09
1.865600 7.848394E-09
1.872244 1.042828E-08
1.878887 1.339618E-08
1.885531 1.671333E-08
1.892175 2.036324E-08
1.898818 2.437129E-08
1.905462 2.880692E-08
1.912105 3.376593E-08
1.918749 3.934022E-08
1.925393 4.558852E-08
1.932036 5.251846E-08
1.938680 6.008169E-08
1.945324 6.817536E-08
1.951967 7.664217E-08
1.958611 8.526743E-08
1.965255 9.378013E-08
1.971898 1.018677E-07
1.978542 1.092094E-07
1.985185 1.155208E-07
1.991829 1.205946E-07
1.998473 1.243188E-07
2.005116 1.266675E-07
2.011760 1.276688E-07
2.018404 1.273675E-07
2.025047 1.257992E-07
2.031691 1.229835E-07
2.038335 1.189320E-07
2.044978 1.136665E-07
2.051622 1.072390E-07
2.058265 9.975329E-08
2.064909 9.138435E-08
2.071553 8.239029E-08
2.078196 7.310570E-08
2.084840 6.391064E-08
2.091484 5.517838E-08
2.098127 4.721577E-08
2.104771 4.021532E-08
2.111415 3.423390E-08
2.118058 2.920375E-08
2.124702 2.497016E-08
2.131345 2.134297E-08
2.137989 1.814680E-08
2.144633 1.525697E-08
2.151276 1.261395E-08
2.157920 1.021636E-08
2.164564 8.098813E-09
2.171207 6.304426E-09
2.177851 4.861719E-09
2.184495 3.771910E-09
2.191138 3.007489E-09
2.197782 2.518660E-09
2.204425 2.242485E-09
2.211069 2.110936E-09
2.217713 2.056935E-09
2.224356 2.019702E-09
2.231000 1.950788E-09
2.237644 1.820251E-09
2.244287 1.620516E-09
2.250931 1.365242E-09
2.257574 1.082625E-09
2.264218 8.052839E-10
2.270862 5.605843E-10
2.277505 3.646808E-10
2.284149 2.214858E-10
2.290793 1.255063E-10
2.297436 6.632721E-11
2.304080 3.268180E-11
2.310724 1.501172E-11
2.317367 6.427089E-12
2.324011 2.564624E-12
2.330654 9.537539E-13
2.337298 3.305505E-13
2.343942 1.067624E-13
2.350585 3.213451E-14
2.357229 9.013504E-15
2.363873 2.356032E-15
2.370516 5.738954E-16
2.377160 1.302707E-16
2.383804 2.755641E-17
2.390447 5.431998E-18
2.397091 9.978316E-19
2.403734 1.708108E-19
2.410378 2.724792E-20
2.417022 4.050525E-21
2.423665 5.611113E-22
2.430309 7.243464E-23
2.436953 8.713708E-24
2.443596 9.768300E-25
2.450240 1.020456E-25
2.456884 9.934092E-27
2.463527 9.011999E-28
2.470171 7.618558E-29
2.476814 6.001821E-30
2.483458 4.406073E-31
2.490102 3.014245E-32
2.496745 1.921603E-33
2.503389 1.141581E-34
2.510033 6.319860E-36
2.516676 3.260363E-37
2.523320 1.567407E-38
2.529964 7.021909E-40
2.536607 2.931471E-41
2.543251 1.140442E-42
2.549894 4.134446E-44
2.556538 1.396749E-45
2.563182 4.397194E-47
2.569825 1.289999E-48
2.576469 3.526623E-50
2.583113 8.984310E-52
2.589756 2.132879E-53
2.596400 4.718492E-55
2.603043 9.727373E-57
2.609687 1.868715E-58
2.616331 3.345382E-60
2.622974 5.580885E-62
2.629618 8.675910E-64
2.636262 1.256844E-65
2.642905 1.696688E-67
2.649549 2.134404E-69
2.656193 2.502103E-71
2.662836 2.733299E-73
2.669480 2.782420E-75
2.676123 2.639438E-77
2.682767 2.333206E-79
2.689411 1.921975E-81
2.696054 1.475350E-83
2.702698 1.055345E-85
2.709342 7.034713E-88
